time (s)	coil I (A)	last det (V)	int current (uC)
5951.703510	0.421202	261.914062	108.496094
5951.705511	0.482691	261.914062	108.496094
5951.707513	0.480519	5.285709	1.253622
5952.745562	0.432607	234.472656	-243.554687
5952.747562	0.482532	234.472656	-243.554687
5952.749563	0.480397	5.284371	1.058173
5953.779556	0.268060	259.277344	112.792969
5953.781561	0.474292	259.277344	112.792969
5953.783564	0.481615	259.277344	112.792969
5953.785568	0.479883	5.278708	1.315435
5954.845597	0.455601	239.550781	-237.890625
5954.847597	0.481596	239.550781	-237.890625
5954.849599	0.479790	5.277689	1.036817
5955.855662	0.473248	270.214844	104.492187
5955.857665	0.480897	270.214844	104.492187
5955.859666	0.479276	5.272034	1.333438
5956.943671	0.482337	257.324219	-222.460937
5956.945675	0.480440	5.284841	1.081553
5957.940204	0.364563	265.332031	104.687500
5957.942203	0.483157	265.332031	104.687500
5957.944204	0.481360	5.294961	1.293359
5959.020243	0.441948	268.066406	-210.742187
5959.022243	0.481772	268.066406	-210.742187
5959.024244	0.479825	5.278069	1.167150
5960.040266	0.482268	261.035156	103.710937
5960.042268	0.480537	5.285904	1.322723
5961.094239	0.482706	270.117187	-207.031250
5961.096244	0.480509	5.285594	1.232184
5962.140801	0.482743	269.628906	97.265625
5962.142803	0.480685	5.287535	1.234602
5963.171339	0.483409	255.468750	-224.023437
5963.173341	0.481278	5.294057	1.207199
5964.225932	0.412553	273.730469	100.878906
5964.227934	0.482733	273.730469	100.878906
5964.229932	0.480480	5.285284	1.309622
5965.264862	0.482529	233.984375	-244.140625
5965.266862	0.480641	5.287056	1.145289
5966.306854	0.481334	272.363281	105.957031
5966.310853	0.478880	5.267683	1.376758
5967.357782	0.343637	236.914062	-240.820312
5967.359785	0.482930	236.914062	-240.820312
5967.361785	0.481725	5.298976	1.091323
5968.376239	0.279347	275.195312	104.199219
5968.378241	0.477478	275.195312	104.199219
5968.382239	0.480994	275.195312	104.199219
5968.384241	0.479849	5.278336	1.392769
5969.458272	0.466969	255.664062	-224.023437
5969.464280	0.479748	255.664062	-224.023437
5969.466283	0.478814	5.266956	1.120826
5970.460801	2.161620	262.304687	109.863281
5970.462801	0.482818	262.304687	109.863281
5970.464801	0.481004	5.291044	1.384585
5971.540847	0.408366	272.558594	-207.421875
5971.542847	0.483241	272.558594	-207.421875
5971.544847	0.481055	5.291602	1.206784
5972.549777	0.385122	266.503906	104.296875
5972.551779	0.484018	266.503906	104.296875
5972.553780	0.481920	5.301120	1.339180
5973.623832	0.483941	275.390625	-203.417969
5973.625835	0.481935	5.301289	1.262540
5974.646354	0.484161	271.972656	98.437500
5974.648355	0.484128	5.325403	1.328894
5975.698886	0.479157	268.359375	-208.691406
5975.700890	0.482511	268.359375	-208.691406
5975.702889	0.480874	5.289618	1.292604
5976.738906	0.224446	261.035156	103.906250
5976.740909	0.464023	261.035156	103.906250
5976.742908	0.483029	261.035156	103.906250
5976.744908	0.481184	5.293020	1.285476
5977.778954	0.333196	271.386719	-206.835937
5977.782955	0.481959	271.386719	-206.835937
5977.784957	0.480392	5.284309	1.290111
5978.830950	0.482731	275.781250	95.312500
5978.832953	0.483520	275.781250	95.312500
5978.834953	0.481727	5.298994	1.336270
5979.863916	0.476780	265.136719	-214.160156
5979.865920	0.482747	265.136719	-214.160156
5979.867919	0.480974	5.290716	1.369946
5980.917936	0.440316	262.207031	105.175781
5980.919939	0.483320	262.207031	105.175781
5980.921938	0.481189	5.293074	1.322832
5981.951950	0.479523	260.742187	-219.335937
5981.953952	0.482726	260.742187	-219.335937
5981.955954	0.481026	5.291283	1.299038
5983.003947	0.338295	275.488281	97.558594
5983.005949	0.483950	275.488281	97.558594
5983.007949	0.483173	5.314901	1.344390
5984.033961	0.239231	252.148437	-227.343750
5984.035962	0.468673	252.148437	-227.343750
5984.037964	0.483220	252.148437	-227.343750
5984.041960	0.480194	5.282137	1.290478
5985.092005	0.480269	270.996094	100.390625
5985.094008	0.484883	270.996094	100.390625
5985.096007	0.483203	5.315229	1.433923
5986.124971	0.483522	261.425781	-218.750000
5986.126973	0.481486	5.296344	1.291109
5987.178993	0.461906	255.859375	110.351562
5987.180996	0.483543	255.859375	110.351562
5987.182996	0.481700	5.298701	1.375055
5988.211049	0.477640	260.546875	-219.140625
5988.213053	0.483738	260.546875	-219.140625
5988.215051	0.481981	5.301794	1.392769
5989.261589	0.400908	274.121094	97.363281
5989.263588	0.484825	274.121094	97.363281
5989.265590	0.482567	5.308237	1.368851
5990.301621	0.482165	263.281250	-215.136719
5990.303621	0.480775	5.288527	1.350716
5991.347651	1.357939	254.394531	108.789062
5991.349650	0.484265	254.394531	108.789062
5991.351651	0.482055	5.302600	1.368440
5992.388087	1.449170	266.699219	-209.472656
5992.392087	0.481160	5.292763	1.350978
5993.428963	0.461535	255.566406	108.886719
5993.430966	0.483581	255.566406	108.886719
5993.432966	0.481693	5.298621	1.382793
5994.481458	0.450615	279.687500	-198.632812
5994.485458	0.482449	279.687500	-198.632812
5994.487462	0.481036	5.291399	1.369042
5995.508405	0.483231	267.871094	103.320312
5995.510406	0.483071	5.313776	1.435712
5996.574916	0.393094	279.199219	-201.171875
5996.576919	0.485285	279.199219	-201.171875
5996.578916	0.483206	5.315265	1.314758
5997.589869	0.478121	268.847656	105.175781
5997.591870	0.483639	268.847656	105.175781
5997.593870	0.481880	5.300677	1.471712
5998.666405	0.440582	265.820312	-214.550781
5998.668407	0.484339	265.820312	-214.550781
5998.672404	0.480947	5.290415	1.282158
5999.674383	0.426815	263.476562	111.621094
5999.676385	0.484325	263.476562	111.621094
5999.678386	0.482154	5.303699	1.507572
6000.750935	0.453167	251.660156	-226.757812
6000.752935	0.484451	251.660156	-226.757812
6000.754936	0.482551	5.308060	1.263559
6001.766980	0.466581	245.996094	126.660156
6001.768982	0.483310	245.996094	126.660156
6001.770983	0.481504	5.296539	1.558084
6002.827407	0.314598	241.601562	-235.449219
6002.829409	0.482606	241.601562	-235.449219
6002.831408	0.483410	5.317507	1.262044
6003.861421	0.357532	264.062500	113.671875
6003.863422	0.484746	264.062500	113.671875
6003.865424	0.483348	5.316824	1.531830
6004.905368	0.416307	247.167969	-231.738281
6004.907372	0.484591	247.167969	-231.738281
6004.909372	0.482497	5.307466	1.307204
6005.955913	0.452877	266.015625	107.812500
6005.957915	0.484172	266.015625	107.812500
6005.959914	0.482190	5.304090	1.495347
6006.989938	0.485736	259.960937	-220.019531
6006.991939	0.483775	5.321530	1.383188
6008.042441	0.421250	266.406250	102.441406
6008.044443	0.484668	266.406250	102.441406
6008.046443	0.482500	5.307501	1.447967
6009.080480	0.470663	267.089844	-209.082031
6009.082484	0.483756	267.089844	-209.082031
6009.084484	0.481986	5.301847	1.448722
6010.120487	0.339308	254.199219	109.765625
6010.122489	0.484865	254.199219	109.765625
6010.124489	0.484274	5.327016	1.479680
6011.174483	0.469266	274.121094	-201.953125
6011.176485	0.486021	274.121094	-201.953125
6011.178484	0.484420	5.328620	1.433307
6012.198492	0.309153	263.964844	107.421875
6012.200494	0.482298	263.964844	107.421875
6012.202494	0.483550	5.319049	1.494460
6013.271024	0.484037	280.371094	-200.488281
6013.273026	0.482139	5.303531	1.401466
6014.280986	0.475542	262.011719	110.937500
6014.282989	0.483646	262.011719	110.937500
6014.286988	0.480612	5.286737	1.576427
6015.357553	0.312378	261.035156	-216.992187
6015.359553	0.482346	261.035156	-216.992187
6015.361554	0.483320	5.316523	1.335874
6016.367582	0.364873	255.566406	118.066406
6016.369584	0.484713	255.566406	118.066406
6016.371584	0.483053	5.313581	1.597379
6017.439608	0.349106	258.007812	-220.703125
6017.441611	0.485117	258.007812	-220.703125
6017.443609	0.483981	5.323790	1.329615
6018.460538	0.483791	250.195312	124.316406
6018.462540	0.482233	250.195312	124.316406
6018.464541	0.481066	5.291727	1.624954
6019.526565	0.483831	246.679687	-229.492187
6019.528568	0.481862	5.300482	1.309198
6020.549121	0.289456	255.371094	121.386719
6020.551126	0.480761	255.371094	121.386719
6020.553125	0.483920	255.371094	121.386719
6020.555125	0.482184	5.304027	1.613257
6021.603684	0.347003	248.339844	-228.613281
6021.605688	0.484838	248.339844	-228.613281
6021.607687	0.483736	5.321096	1.325213
6022.641701	0.428877	242.480469	130.859375
6022.643703	0.484658	242.480469	130.859375
6022.645709	0.482619	5.308804	1.620606
6023.687753	0.482652	244.824219	-231.640625
6023.691750	0.482139	244.824219	-231.640625
6023.693753	0.480985	5.290831	1.379678
6024.729817	0.395801	247.460937	126.367187
6024.731819	0.485809	247.460937	126.367187
6024.733819	0.483811	5.321920	1.600349
6025.773820	0.484360	247.656250	-229.785156
6025.775819	0.483569	5.319262	1.377184
6026.818335	0.449722	253.222656	120.898437
6026.820335	0.484573	253.222656	120.898437
6026.822336	0.482682	5.309504	1.618058
6027.858858	0.458481	244.824219	-231.347656
6027.860858	0.484480	244.824219	-231.347656
6027.862858	0.482584	5.308423	1.385384
6028.906913	0.480868	253.808594	121.093750
6028.908916	0.485514	253.808594	121.093750
6028.910917	0.483886	5.322744	1.623022
6029.943444	0.387336	242.285156	-232.128906
6029.945445	0.484890	242.285156	-232.128906
6029.947445	0.482892	5.311809	1.418761
6030.993423	0.485556	250.976562	123.828125
6030.995424	0.483614	5.319758	1.614303
6032.031932	0.322818	250.292969	-227.539062
6032.033933	0.483351	250.292969	-227.539062
6032.035932	0.483505	5.318552	1.417738
6033.074874	0.241677	249.023437	126.074219
6033.076877	0.469894	249.023437	126.074219
6033.078878	0.484010	249.023437	126.074219
6033.080878	0.482180	5.303983	1.626774
6034.122905	0.470231	241.699219	-232.128906
6034.124905	0.483825	241.699219	-232.128906
6034.126905	0.482020	5.302219	1.402288
6035.160952	0.478156	252.343750	124.804687
6035.162955	0.483276	252.343750	124.804687
6035.164954	0.481539	5.296928	1.627047
6036.211516	0.342141	235.058594	-234.765625
6036.213518	0.484771	235.058594	-234.765625
6036.215517	0.483976	5.323737	1.377182
6037.243487	0.434943	245.507812	129.980469
6037.245489	0.484467	245.507812	129.980469
6037.247488	0.482383	5.306208	1.627441
6038.301501	0.342058	253.515625	-223.339844
6038.305499	0.483914	253.515625	-223.339844
6038.307500	0.482244	5.304683	1.392802
6039.325522	0.477843	248.730469	126.269531
6039.327523	0.484561	248.730469	126.269531
6039.329524	0.482821	5.311028	1.627446
6040.394027	0.260327	254.785156	-221.484375
6040.400026	0.481943	254.785156	-221.484375
6040.402029	0.480783	254.785156	-221.484375
6040.404029	0.479801	5.277812	1.388717
6041.408041	0.431013	245.312500	126.953125
6041.410043	0.485139	245.312500	126.953125
6041.412042	0.483154	5.314689	1.627102
6042.482070	0.355287	270.214844	-209.570312
6042.484072	0.484926	270.214844	-209.570312
6042.486072	0.483605	5.319652	1.456541
6043.492600	0.252359	245.507812	123.535156
6043.494601	0.472548	245.507812	123.535156
6043.496599	0.483916	245.507812	123.535156
6043.498603	0.482078	5.302857	1.626878
6044.566628	0.230181	270.312500	-204.589844
6044.568630	0.466989	270.312500	-204.589844
6044.570630	0.484530	270.312500	-204.589844
6044.572631	0.482753	5.310284	1.513430
6045.584650	0.400942	240.820312	123.339844
6045.586652	0.485445	240.820312	123.339844
6045.588651	0.483415	5.317560	1.626486
6046.649086	2.228513	276.855469	-198.437500
6046.651087	0.484111	276.855469	-198.437500
6046.653086	0.482302	5.305321	1.576338
6047.681087	0.484601	253.027344	113.476562
6047.685088	0.481197	5.293171	1.593923
6048.727604	0.467185	281.542969	-196.582031
6048.729608	0.484662	281.542969	-196.582031
6048.731605	0.482876	5.311640	1.614289
6049.772138	0.311967	251.074219	113.671875
6049.774139	0.483150	251.074219	113.671875
6049.778140	0.482706	5.309770	1.615355
6050.808192	0.456686	258.007812	-212.890625
6050.810192	0.484494	258.007812	-212.890625
6050.812194	0.482674	5.309416	1.602609
6051.865133	0.483830	235.742187	128.320312
6051.867135	0.482166	5.303823	1.626849
6052.895108	0.455400	253.710937	-222.753906
6052.897109	0.484508	253.710937	-222.753906
6052.899111	0.482565	5.308219	1.562309
6053.947102	2.514209	252.539062	121.191406
6053.949106	0.486108	252.539062	121.191406
6053.951104	0.484170	5.325873	1.627305
6054.987099	0.477793	249.804687	-226.660156
6054.989102	0.484156	249.804687	-226.660156
6054.991109	0.482416	5.306580	1.505980
6056.031646	0.482984	239.746094	134.179687
6056.033649	0.481685	239.746094	134.179687
6056.035648	0.480653	5.287180	1.627161
6057.079632	0.343884	243.750000	-229.296875
6057.081634	0.485076	243.750000	-229.296875
6057.083632	0.484140	5.325536	1.434309
6058.107673	0.449204	241.894531	132.617187
6058.109676	0.484600	241.894531	132.617187
6058.111674	0.482646	5.309105	1.627244
6059.171673	0.345137	248.632812	-224.707031
6059.173674	0.485064	248.632812	-224.707031
6059.175674	0.484095	5.325048	1.463368
6060.189670	0.461956	237.988281	134.082031
6060.191671	0.484870	237.988281	134.082031
6060.193672	0.483062	5.313687	1.627252
6061.261665	0.410637	261.132812	-215.429687
6061.263667	0.486515	261.132812	-215.429687
6061.265666	0.484563	5.330197	1.482180
6062.275660	0.467502	247.265625	126.074219
6062.277662	0.484260	247.265625	126.074219
6062.279662	0.482448	5.306925	1.627504
6063.348174	0.360667	261.816406	-210.644531
6063.350176	0.485755	261.816406	-210.644531
6063.352178	0.484294	5.327229	1.529285
6064.362608	0.483690	252.441406	119.921875
6064.364609	0.484355	5.327902	1.627682
6065.434613	0.425051	268.359375	-204.785156
6065.436616	0.484989	268.359375	-204.785156
6065.438615	0.482946	5.312411	1.585371
6066.452628	0.484032	251.171875	119.628906
6066.454631	0.482195	5.304142	1.627119
6067.521195	0.483609	268.261719	-201.953125
6067.523197	0.483654	5.320192	1.612012
6068.537168	0.344276	241.796875	125.000000
6068.539169	0.485188	241.796875	125.000000
6068.541172	0.484161	5.325776	1.627717
6069.605195	0.452798	281.542969	-196.582031
6069.607195	0.484902	281.542969	-196.582031
6069.609197	0.483114	5.314254	1.599145
6070.627720	0.484410	234.765625	128.613281
6070.629722	0.482980	5.312783	1.627176
6071.689773	0.430457	281.933594	-195.410156
6071.691776	0.485147	281.933594	-195.410156
6071.693775	0.483169	5.314857	1.625676
6072.711790	0.228891	237.500000	127.636719
6072.713793	0.466513	237.500000	127.636719
6072.715794	0.484455	237.500000	127.636719
6072.717792	0.482664	5.309309	1.627413
6073.775885	0.334451	274.707031	-197.460937
6073.777887	0.484220	274.707031	-197.460937
6073.779890	0.483813	5.321947	1.626656
6074.799902	0.475529	232.421875	130.957031
6074.801903	0.476732	232.421875	130.957031
6074.803905	0.482049	5.302538	1.627597
6075.865934	0.477436	287.109375	-193.164062
6075.867935	0.484657	287.109375	-193.164062
6075.869936	0.482963	5.312588	1.626077
6076.883986	0.294892	235.546875	129.980469
6076.885992	0.480882	235.546875	129.980469
6076.887996	0.483985	5.323834	1.627741
6077.954027	0.476495	282.226562	-196.679687
6077.956028	0.483594	5.319536	1.616801
6078.970582	0.444723	234.472656	131.933594
6078.972584	0.484894	234.472656	131.933594
6078.974584	0.482969	5.312659	1.627213
6080.040566	0.437929	277.050781	-200.781250
6080.042566	0.486383	277.050781	-200.781250
6080.044568	0.484535	5.329887	1.624132
6081.056541	0.484460	230.273437	137.207031
6081.058542	0.483612	5.319731	1.627387
6082.131043	0.485626	257.031250	-209.765625
6082.133044	0.484053	5.324588	1.591449
6083.143013	0.454994	241.894531	131.347656
6083.145015	0.484837	241.894531	131.347656
6083.147016	0.483105	5.314157	1.627688
6084.213583	0.407764	248.535156	-217.187500
6084.215586	0.485153	248.535156	-217.187500
6084.217585	0.483118	5.314299	1.572202
6085.231575	0.481678	239.550781	134.960937
6085.233577	0.484779	239.550781	134.960937
6085.235577	0.483153	5.314680	1.627760
6086.300085	0.485024	258.496094	-217.578125
6086.302088	0.483254	5.315796	1.540014
6087.322119	0.485429	227.148437	145.703125
6087.324123	0.483630	5.319935	1.627383
6088.378199	0.268322	235.937500	-227.832031
6088.380200	0.476589	235.937500	-227.832031
6088.382200	0.484459	235.937500	-227.832031
6088.384199	0.482702	5.309726	1.560314
6089.416212	0.484339	220.800781	150.976562
6089.418213	0.482521	5.307732	1.627455
6090.460229	0.467920	239.550781	-227.246094
6090.462230	0.484568	239.550781	-227.246094
6090.464232	0.482830	5.311135	1.595910
6091.506228	0.466372	232.031250	140.039062
6091.508230	0.484512	232.031250	140.039062
6091.510231	0.482734	5.310071	1.627600
6092.542231	0.337481	243.554687	-223.046875
6092.544233	0.484323	243.554687	-223.046875
6092.546232	0.483725	5.320972	1.626483
6093.596229	0.485986	224.218750	141.210937
6093.598231	0.484105	5.325155	1.627417
6094.632188	0.483937	263.085937	-210.644531
6094.634192	0.482427	5.306695	1.626825
6095.680744	0.398614	236.425781	127.636719
6095.684743	0.484584	236.425781	127.636719
6095.686748	0.483106	5.314166	1.627876
6096.720728	0.483370	278.710937	-197.265625
6096.722730	0.481809	5.299898	1.627274
6097.765662	0.485865	241.113281	122.753906
6097.767665	0.483815	5.321964	1.627454
6098.810197	0.454021	281.347656	-191.796875
6098.812198	0.484435	281.347656	-191.796875
6098.814199	0.482586	5.308441	1.627224
6099.844776	0.390931	248.730469	119.726562
6099.846776	0.485529	248.730469	119.726562
6099.848777	0.483564	5.319200	1.627393
6100.900774	0.357811	274.218750	-193.847656
6100.902776	0.485255	274.218750	-193.847656
6100.904776	0.483880	5.322682	1.627102
6101.926843	0.421320	232.812500	132.128906
6101.928844	0.485451	232.812500	132.128906
6101.930845	0.483429	5.317719	1.627575
6102.992900	0.482196	282.617187	-193.554687
6102.994899	0.484204	5.326245	1.627449
6104.011424	0.471040	229.199219	136.523437
6104.013426	0.484800	229.199219	136.523437
6104.015426	0.483044	5.313483	1.627370
6105.083432	0.483883	278.222656	-198.828125
6105.085436	0.482150	5.303655	1.626567
6106.095946	0.408098	223.828125	142.578125
6106.097950	0.485195	223.828125	142.578125
6106.099950	0.483180	5.314981	1.627713
6107.167998	0.447397	274.121094	-203.320312
6107.169999	0.485354	274.121094	-203.320312
6107.172001	0.483485	5.318331	1.625824
6108.182904	0.412538	223.632812	145.117187
6108.184905	0.485040	223.632812	145.117187
6108.186905	0.483049	5.313537	1.627621
6109.254920	0.474454	269.628906	-206.738281
6109.256923	0.483902	269.628906	-206.738281
6109.258921	0.482098	5.303079	1.615349
6110.270886	0.458868	230.957031	141.308594
6110.272888	0.485173	230.957031	141.308594
6110.274888	0.483345	5.316798	1.627259
6111.339431	0.417567	258.398437	-212.988281
6111.341434	0.485110	258.398437	-212.988281
6111.343435	0.483048	5.313528	1.609599
6112.357428	0.375283	226.855469	145.507812
6112.359431	0.485458	226.855469	145.507812
6112.361431	0.483645	5.320095	1.627544
6113.427464	0.485176	261.523437	-212.500000
6113.429466	0.483201	5.315212	1.602691
6114.444422	0.385159	226.953125	145.996094
6114.446424	0.485797	226.953125	145.996094
6114.448425	0.483945	5.323400	1.627565
6115.510434	0.318594	251.074219	-216.406250
6115.512437	0.483037	251.074219	-216.406250
6115.514436	0.483565	5.319217	1.616076
6116.532462	0.446298	232.031250	142.480469
6116.534464	0.484601	232.031250	142.480469
6116.536466	0.482568	5.308246	1.627270
6117.599366	0.470086	239.062500	-218.164062
6117.603367	0.482803	239.062500	-218.164062
6117.605370	0.481522	5.296742	1.621061
6118.619377	0.474034	219.140625	151.562500
6118.621377	0.484636	219.140625	151.562500
6118.623379	0.482912	5.312030	1.627447
6119.685360	0.398257	253.906250	-213.964844
6119.687360	0.486663	253.906250	-213.964844
6119.689362	0.484729	5.332014	1.622992
6120.707341	0.484261	214.648437	154.394531
6120.709342	0.482524	5.307767	1.627545
6121.775813	0.485423	259.277344	-210.546875
6121.779813	0.482146	5.303602	1.622222
6122.790393	0.425984	214.941406	152.246094
6122.792395	0.485438	214.941406	152.246094
6122.794395	0.483473	5.318198	1.627386
6123.861321	0.852492	266.308594	-205.957031
6123.863323	0.484407	266.308594	-205.957031
6123.865324	0.482503	5.307537	1.626853
6124.879851	0.483826	214.160156	151.269531
6124.881854	0.482222	5.304444	1.627750
6125.948298	0.457044	267.187500	-201.953125
6125.950301	0.485220	267.187500	-201.953125
6125.952302	0.483485	5.318340	1.626956
6126.964292	0.466699	237.207031	133.105469
6126.966292	0.484459	237.207031	133.105469
6126.968293	0.482717	5.309885	1.627375
6128.032286	0.297940	267.968750	-197.070312
6128.034289	0.482340	267.968750	-197.070312
6128.036288	0.485049	5.335542	1.627761
6129.054301	0.485003	224.804687	140.234375
6129.056303	0.483286	5.316151	1.627918
6130.116320	0.329291	271.582031	-192.968750
6130.118322	0.484398	271.582031	-192.968750
6130.120322	0.484221	5.326431	1.627604
6131.142320	0.472582	218.554687	141.113281
6131.144324	0.484787	218.554687	141.113281
6131.146325	0.483140	5.314538	1.627683
6132.200305	0.455796	261.914062	-192.773437
6132.202307	0.484774	261.914062	-192.773437
6132.204308	0.482959	5.312553	1.627275
6133.236779	0.484393	231.152344	131.152344
6133.238783	0.482502	5.307519	1.627499
6134.283325	0.485890	257.128906	-194.628906
6134.285326	0.484080	5.324880	1.627801
6135.325340	0.440334	221.777344	137.207031
6135.327342	0.484970	221.777344	137.207031
6135.329342	0.483071	5.313785	1.627648
6136.365397	0.358070	264.941406	-198.339844
6136.367399	0.484580	5.330384	1.627098
6137.413429	0.341181	223.925781	138.085937
6137.415432	0.484837	223.925781	138.085937
6137.417431	0.484040	5.324437	1.627297
6138.451483	0.485723	262.695312	-205.761719
6138.453482	0.483792	5.321716	1.627277
6139.502022	0.420966	218.261719	146.972656
6139.504025	0.484948	218.261719	146.972656
6139.506024	0.482916	5.312074	1.627677
6140.538022	0.484249	233.300781	-217.089844
6140.540023	0.484264	5.326901	1.627290
6141.587990	0.465259	224.804687	146.972656
6141.589993	0.485293	224.804687	146.972656
6141.591992	0.483629	5.319918	1.627497
6142.626502	0.472648	253.125000	-216.699219
6142.628503	0.483998	253.125000	-216.699219
6142.630503	0.482271	5.304985	1.627201
6143.670535	0.401622	228.320312	146.679687
6143.672538	0.485285	228.320312	146.679687
6143.674537	0.483151	5.314662	1.627446
6144.717461	0.471247	246.679687	-219.433594
6144.719462	0.484343	246.679687	-219.433594
6144.721463	0.482572	5.308290	1.626550
6145.753995	0.479652	209.375000	163.085937
6145.755997	0.484406	209.375000	163.085937
6145.757997	0.482708	5.309788	1.627400
6146.806039	0.336916	248.242187	-217.675781
6146.808038	0.484638	248.242187	-217.675781
6146.810038	0.484070	5.324774	1.626784
6147.836562	0.438213	208.886719	162.597656
6147.838564	0.484837	208.886719	162.597656
6147.840564	0.482868	5.311552	1.627842
6148.896975	0.394394	241.601562	-216.992187
6148.900975	0.484145	241.601562	-216.992187
6148.902979	0.484072	5.324792	1.626036
6149.920980	0.443616	217.285156	155.664062
6149.922981	0.484465	217.285156	155.664062
6149.924982	0.482486	5.307342	1.627424
6150.985005	0.405098	246.582031	-213.183594
6150.987006	0.485492	246.582031	-213.183594
6150.989007	0.483430	5.317729	1.626667
6152.005002	0.351966	221.386719	152.246094
6152.009000	0.483700	221.386719	152.246094
6152.011004	0.482087	5.302955	1.627381
6153.073041	0.415599	251.367187	-208.984375
6153.077041	0.483161	251.367187	-208.984375
6153.081040	0.480594	5.286533	1.627253
6154.093063	0.481408	208.300781	161.230469
6154.095065	0.483747	5.321220	1.627525
6155.163042	0.486126	263.574219	-204.785156
6155.165043	0.484233	263.574219	-204.785156
6155.167046	0.482754	5.310293	1.627301
6156.179545	0.483265	209.472656	159.960937
6156.181547	0.484174	5.325917	1.627397
6157.246462	3.040756	267.675781	-202.539062
6157.248466	0.480888	267.675781	-202.539062
6157.250465	0.484139	267.675781	-202.539062
6157.252467	0.482451	5.306961	1.627239
6158.265039	0.443915	213.085937	156.933594
6158.267039	0.485065	213.085937	156.933594
6158.269040	0.483160	5.314760	1.627575
6159.335090	0.472458	272.363281	-200.683594
6159.337094	0.484673	272.363281	-200.683594
6159.339094	0.482856	5.311419	1.627321
6160.351078	2.731871	210.546875	158.593750
6160.353081	0.485697	210.546875	158.593750
6160.355081	0.483651	5.320157	1.627685
6161.421098	0.450553	253.906250	-205.371094
6161.423101	0.484658	253.906250	-205.371094
6161.425100	0.482683	5.309513	1.626871
6162.439146	0.462524	210.937500	159.277344
6162.441149	0.484519	210.937500	159.277344
6162.443149	0.482645	5.309096	1.627321
6163.507179	0.424066	264.160156	-204.589844
6163.509182	0.485222	264.160156	-204.589844
6163.511183	0.483196	5.315158	1.627092
6164.525721	0.388009	210.546875	160.253906
6164.529720	0.483481	210.546875	160.253906
6164.531720	0.482045	5.302494	1.627279
6165.591733	0.242206	252.148437	-209.570312
6165.593735	0.470331	252.148437	-209.570312
6165.595734	0.484418	252.148437	-209.570312
6165.597735	0.482665	5.309318	1.627073
6166.613749	0.446932	209.765625	161.816406
6166.615750	0.484948	209.765625	161.816406
6166.617751	0.482959	5.312553	1.627643
6167.677812	0.412603	231.250000	-214.160156
6167.679814	0.485297	231.250000	-214.160156
6167.681812	0.483216	5.315371	1.627349
6168.702292	0.453162	209.472656	163.671875
6168.704294	0.485365	209.472656	163.671875
6168.706292	0.483515	5.318668	1.627808
6169.762380	0.432737	233.398437	-216.308594
6169.764386	0.485366	233.398437	-216.308594
6169.766393	0.483396	5.317356	1.627103
6170.792415	0.462183	221.972656	155.273437
6170.794417	0.484321	221.972656	155.273437
6170.796417	0.484240	5.326635	1.627523
6171.844987	0.351065	232.910156	-217.382812
6171.846991	0.484605	232.910156	-217.382812
6171.848990	0.483485	5.318331	1.626873
6172.880993	0.308909	205.175781	168.359375
6172.882993	0.482109	205.175781	168.359375
6172.884995	0.483510	5.318606	1.627403
6173.927895	0.286348	236.621094	-217.089844
6173.929896	0.481197	236.621094	-217.089844
6173.931894	0.482125	5.303380	1.627168
6174.971922	0.295809	212.304687	161.132812
6174.973926	0.483058	212.304687	161.132812
6174.975929	0.486134	5.347479	1.627245
6176.011952	0.321588	231.835937	-215.332031
6176.013955	0.484082	231.835937	-215.332031
6176.015955	0.484506	5.329568	1.627619
6177.062866	0.481042	219.824219	152.246094
6177.064868	0.484022	219.824219	152.246094
6177.068866	0.481085	5.291939	1.627483
6178.097413	0.333754	227.050781	-210.449219
6178.099416	0.484115	227.050781	-210.449219
6178.101414	0.483780	5.321575	1.627518
6179.149395	0.380631	213.378906	153.222656
6179.151397	0.486527	213.378906	153.222656
6179.153399	0.484704	5.331748	1.627314
6180.187447	0.484974	233.300781	-202.734375
6180.189445	0.483375	5.317126	1.627735
6181.235451	0.399820	210.253906	151.269531
6181.237453	0.485358	210.253906	151.269531
6181.239452	0.483274	5.316018	1.627614
6182.275498	0.484688	249.316406	-194.921875
6182.277499	0.482984	5.312819	1.627627
6183.321543	0.480940	223.046875	139.941406
6183.323545	0.484136	223.046875	139.941406
6183.325546	0.482432	5.306757	1.627378
6184.362071	0.380386	271.679687	-187.109375
6184.364073	0.485663	271.679687	-187.109375
6184.370070	0.481101	5.292108	1.627255
6185.404096	0.393024	229.589844	135.839844
6185.406096	0.485246	229.589844	135.839844
6185.408096	0.483340	5.316744	1.627243
6186.454132	0.483298	278.125000	-184.277344
6186.456135	0.483698	5.320680	1.627888
6187.488668	0.485183	205.761719	151.464844
6187.490669	0.483617	5.319785	1.627814
6188.544643	0.488994	278.613281	-184.082031
6188.546646	0.482971	5.312677	1.627495
6189.571165	0.381518	223.535156	142.675781
6189.573166	0.485678	223.535156	142.675781
6189.575166	0.483825	5.322071	1.627296
6190.631753	0.409766	267.773437	-186.718750
6190.633753	0.485680	267.773437	-186.718750
6190.635752	0.483617	5.319785	1.627430
6191.657774	0.484800	210.644531	152.832031
6191.659777	0.482702	210.644531	152.832031
6191.661775	0.481267	5.293942	1.627545
6192.721801	0.366567	262.890625	-189.453125
6192.723800	0.484058	5.324641	1.627549
6193.741814	0.463011	209.960937	154.785156
6193.743816	0.484179	209.960937	154.785156
6193.745815	0.482380	5.306180	1.627351
6194.811838	0.483703	269.824219	-190.527344
6194.813839	0.483644	5.320086	1.627496
6195.826377	0.324582	210.351562	155.273437
6195.828379	0.483533	210.351562	155.273437
6195.830378	0.483622	5.319847	1.627633
6196.894360	0.317142	261.621094	-192.675781
6196.896360	0.483750	261.621094	-192.675781
6196.898362	0.484463	5.329090	1.627200
6197.912410	0.266606	202.539062	160.839844
6197.914413	0.476381	202.539062	160.839844
6197.916413	0.484646	202.539062	160.839844
6197.918412	0.482970	5.312668	1.627535
6198.984453	0.485235	274.804687	-191.699219
6198.986456	0.483355	5.316904	1.627365
6200.004478	0.482839	209.179687	156.054687
6200.006481	0.481462	209.179687	156.054687
6200.008480	0.480476	5.285239	1.627497
6376.299459	0.421030	316.601562	-163.378906
6376.301461	0.485808	316.601562	-163.378906
6376.303461	0.483807	5.321876	1.627628
6377.337975	0.470098	217.578125	152.246094
6377.339978	0.484865	217.578125	152.246094
6377.341979	0.483129	5.314414	1.627569
6378.384024	0.440208	306.152344	-166.992187
6378.386026	0.484841	306.152344	-166.992187
6378.388026	0.482764	5.310399	1.627636
6379.426035	0.447157	219.921875	150.976562
6379.428037	0.484323	219.921875	150.976562
6379.430036	0.482329	5.305614	1.627400
6380.470048	0.475407	296.484375	-169.921875
6380.472048	0.484108	296.484375	-169.921875
6380.474049	0.482272	5.304993	1.627539
6381.514079	0.453631	224.804687	148.339844
6381.516081	0.484296	224.804687	148.339844
6381.518079	0.482388	5.306270	1.627595
6382.554113	0.463835	298.339844	-172.656250
6382.556116	0.484390	298.339844	-172.656250
6382.558114	0.482461	5.307076	1.627599
6383.602106	0.359544	227.734375	146.582031
6383.604108	0.485356	227.734375	146.582031
6383.606108	0.483899	5.322886	1.627313
6384.640658	0.470736	291.015625	-177.832031
6384.642659	0.484296	291.015625	-177.832031
6384.644660	0.482474	5.307218	1.627313
6385.690661	0.429976	230.078125	146.191406
6385.692663	0.484570	230.078125	146.191406
6385.694663	0.482507	5.307581	1.627805
6386.726632	0.473848	289.355469	-181.738281
6386.728634	0.483937	289.355469	-181.738281
6386.730634	0.482150	5.303655	1.627797
6387.778656	0.484502	216.699219	160.546875
6387.780658	0.482493	5.307422	1.627517
6388.812671	0.352181	276.562500	-186.425781
6388.814672	0.484982	276.562500	-186.425781
6388.816674	0.483825	5.322080	1.627312
6389.864674	0.484169	219.531250	160.644531
6389.866675	0.483645	5.320095	1.627731
6390.901241	0.463559	277.441406	-188.769531
6390.903244	0.483974	277.441406	-188.769531
6390.905242	0.482100	5.303097	1.627562
6391.949264	0.461216	219.042969	162.597656
6391.951268	0.485363	219.042969	162.597656
6391.955265	0.482254	5.304798	1.627281
6392.987751	0.311349	278.027344	-190.527344
6392.989752	0.482718	278.027344	-190.527344
6392.991753	0.483959	5.323551	1.627492
6394.033806	0.387853	214.843750	167.773437
6394.035807	0.485218	214.843750	167.773437
6394.037807	0.483186	5.315043	1.627570
6395.075814	0.251286	264.355469	-192.480469
6395.077816	0.473260	264.355469	-192.480469
6395.079814	0.485345	264.355469	-192.480469
6395.081816	0.483760	5.321362	1.627220
6396.117811	0.261747	214.941406	169.531250
6396.119812	0.475071	214.941406	169.531250
6396.121811	0.484411	214.941406	169.531250
6396.123812	0.482714	5.309858	1.627539
6397.165855	0.450922	273.437500	-191.113281
6397.167856	0.485214	273.437500	-191.113281
6397.169857	0.483346	5.316807	1.627172
6398.203903	0.288887	208.007812	177.832031
6398.205904	0.480540	208.007812	177.832031
6398.207906	0.483812	208.007812	177.832031
6398.209904	0.482109	5.303203	1.627361
6399.255911	0.485960	252.929687	-192.480469
6399.257912	0.484308	5.327388	1.627255
6400.291886	0.482472	217.382812	168.945312
6400.293888	0.484102	5.325119	1.627275
6401.340808	0.414223	260.644531	-191.894531
6401.342808	0.485049	260.644531	-191.894531
6401.344810	0.483084	5.313927	1.627103
6402.378801	0.485023	217.968750	168.554687
6402.380804	0.483142	5.314565	1.627378
6403.429338	0.460997	268.457031	-191.210937
6403.433335	0.482984	268.457031	-191.210937
6403.435339	0.481618	5.297797	1.627595
6404.463313	0.442925	220.214844	166.796875
6404.467312	0.482431	220.214844	166.796875
6404.469316	0.481084	5.291921	1.627387
6405.515868	0.435008	282.812500	-189.062500
6405.517870	0.485364	282.812500	-189.062500
6405.519872	0.483402	5.317418	1.627530
6406.549902	0.456972	203.613281	183.007812
6406.551904	0.484532	203.613281	183.007812
6406.553904	0.482709	5.309797	1.627647
6407.603895	0.485453	278.710937	-189.550781
6407.607898	0.481980	5.301785	1.627575
6408.638419	0.485530	199.804687	186.230469
6408.640420	0.483900	5.322895	1.627290
6409.690400	0.485839	277.832031	-189.453125
6409.692403	0.483903	5.322931	1.627255
6410.724947	0.467650	207.031250	179.394531
6410.726949	0.484327	207.031250	179.394531
6410.728950	0.484271	5.326981	1.627460
6411.774946	0.462454	274.023437	-190.039062
6411.776947	0.485488	274.023437	-190.039062
6411.778948	0.483760	5.321362	1.627524
6412.812992	0.441986	215.527344	170.312500
6412.814991	0.484879	215.527344	170.312500
6412.816990	0.483050	5.313554	1.627218
6413.861530	0.483850	278.027344	-189.843750
6413.863534	0.483901	5.322913	1.627205
6414.902050	0.484639	217.089844	168.261719
6414.904052	0.483646	5.320104	1.627430
6415.945001	0.340047	279.003906	-189.062500
6415.947003	0.484630	279.003906	-189.062500
6415.949005	0.483845	5.322293	1.627646
6416.987940	0.404979	211.816406	172.460937
6416.989942	0.485609	211.816406	172.460937
6416.991942	0.483646	5.320104	1.627340
6418.029933	0.349818	270.312500	-188.476562
6418.031936	0.484886	270.312500	-188.476562
6418.033935	0.483675	5.320422	1.627625
6419.075971	0.351026	215.917969	167.675781
6419.077973	0.485139	215.917969	167.675781
6419.079974	0.483962	5.323586	1.627588
6420.116533	0.431655	277.539062	-185.937500
6420.118533	0.484629	277.539062	-185.937500
6420.120534	0.482638	5.309017	1.627441
6421.164560	0.427911	218.847656	163.085937
6421.166562	0.484907	218.847656	163.085937
6421.168563	0.482778	5.310559	1.627715
6422.201466	0.310769	279.296875	-183.105469
6422.203467	0.482521	279.296875	-183.105469
6422.205466	0.483763	5.321389	1.627242
6423.253508	0.494349	218.359375	161.523437
6423.255511	0.483440	5.317835	1.627507
6424.288053	0.340206	279.394531	-179.882812
6424.290056	0.484990	279.394531	-179.882812
6424.292055	0.484275	5.327025	1.627425
6425.338082	0.327928	214.355469	163.085937
6425.340082	0.484108	214.355469	163.085937
6425.344083	0.482438	5.306819	1.627405
6426.378167	0.485480	293.164062	-174.707031
6426.380168	0.483769	5.321459	1.627633
6427.426661	0.477931	217.187500	159.082031
6427.428664	0.484002	217.187500	159.082031
6427.430663	0.482266	5.304923	1.627574
6428.463598	0.462848	297.656250	-170.605469
6428.465602	0.484609	297.656250	-170.605469
6428.467604	0.482772	5.310497	1.627240
6429.514138	0.485410	213.769531	160.058594
6429.516140	0.483713	5.320848	1.627558
6430.550645	0.383065	296.484375	-167.480469
6430.552647	0.485642	296.484375	-167.480469
6430.554647	0.483781	5.321592	1.627290
6431.596676	0.385147	214.453125	158.984375
6431.598678	0.485645	214.453125	158.984375
6431.600677	0.483723	5.320954	1.627510
6432.638706	0.398270	291.894531	-165.136719
6432.640708	0.485794	291.894531	-165.136719
6432.642709	0.483813	5.321947	1.627520
6433.682702	0.447978	208.691406	163.281250
6433.684702	0.484513	208.691406	163.281250
6433.686702	0.482601	5.308609	1.627421
6434.726724	0.343213	303.222656	-162.597656
6434.728728	0.485110	303.222656	-162.597656
6434.730725	0.484213	5.326343	1.627218
6435.766740	0.285264	207.714844	163.671875
6435.768745	0.480333	207.714844	163.671875
6435.770745	0.484870	207.714844	163.671875
6435.772746	0.483213	5.315344	1.627209
6436.814751	0.355655	303.320312	-161.230469
6436.816749	0.485363	303.320312	-161.230469
6436.818750	0.484083	5.324915	1.627614
6437.852732	0.375163	202.343750	168.164062
6437.856733	0.484215	202.343750	168.164062
6437.858736	0.482787	5.310656	1.627212
6438.902771	2.464943	304.101562	-160.449219
6438.904774	0.485492	304.101562	-160.449219
6438.906774	0.483933	5.323267	1.627666
6439.938772	0.326697	215.625000	158.496094
6439.940775	0.484086	215.625000	158.496094
6439.942774	0.484124	5.325367	1.627350
6440.993283	0.484949	296.875000	-160.156250
6440.997282	0.481430	5.295732	1.627432
6442.025254	0.404555	203.320312	168.750000
6442.027254	0.485533	203.320312	168.750000
6442.029254	0.483489	5.318376	1.627714
6443.077272	0.318162	298.632812	-159.570312
6443.079274	0.483775	298.632812	-159.570312
6443.081275	0.484497	5.329462	1.627223
6444.111264	0.417017	203.710937	169.042969
6444.113266	0.484975	203.710937	169.042969
6444.115267	0.482931	5.312243	1.627242
6445.167280	0.485737	318.554687	-157.519531
6445.169281	0.483732	5.321052	1.627267
6446.197269	0.295302	205.371094	167.578125
6446.199270	0.481245	205.371094	167.578125
6446.201272	0.484141	5.325554	1.627457
6447.251328	0.352973	312.792969	-158.203125
6447.253330	0.485485	312.792969	-158.203125
6447.255331	0.484265	5.326910	1.627640
6448.285883	0.473100	212.988281	161.718750
6448.287884	0.484692	212.988281	161.718750
6448.289884	0.482909	5.312004	1.627612
6449.340416	0.485039	311.035156	-158.203125
6449.342418	0.483009	5.313094	1.627343
6450.372943	0.454004	196.875000	174.316406
6450.374945	0.485018	196.875000	174.316406
6450.376946	0.483188	5.315070	1.627199
6451.424911	0.470670	301.367187	-158.691406
6451.426913	0.484428	301.367187	-158.691406
6451.428913	0.482632	5.308955	1.627400
6452.460958	0.480912	216.601562	158.789062
6452.462958	0.485217	216.601562	158.789062
6452.464960	0.483681	5.320494	1.627491
6453.511492	0.485180	283.105469	-159.570312
6453.513492	0.484140	5.325536	1.627361
6454.547498	1.878034	199.804687	172.460937
6454.549500	0.485629	199.804687	172.460937
6454.551501	0.483879	5.322674	1.627684
6455.595918	0.456851	307.324219	-158.886719
6455.597918	0.484398	307.324219	-158.886719
6455.599920	0.482543	5.307971	1.627388
6456.636448	0.465506	203.125000	169.824219
6456.638451	0.484737	203.125000	169.824219
6456.640450	0.483014	5.313156	1.627827
6457.682450	0.486035	301.660156	-160.742187
6457.684451	0.484203	5.326236	1.627402
6458.726470	0.484637	206.640625	167.089844
6458.728472	0.482648	5.309123	1.627449
6459.766496	0.445346	289.160156	-163.671875
6459.768500	0.484820	289.160156	-163.671875
6459.770498	0.482864	5.311507	1.627558
6460.814514	0.485338	201.660156	171.679687
6460.816516	0.483521	5.318730	1.627756
6461.852543	0.457866	284.960937	-166.699219
6461.854546	0.486942	284.960937	-166.699219
6461.856545	0.485258	5.337837	1.627544
6462.898566	0.273778	206.347656	169.140625
6462.900568	0.478079	206.347656	169.140625
6462.902566	0.484671	206.347656	169.140625
6462.904567	0.483108	5.314192	1.627546
6463.938592	0.465877	300.488281	-168.652344
6463.942593	0.485080	300.488281	-168.652344
6463.944594	0.482008	5.302086	1.627721
6464.988573	0.481591	212.695312	165.527344
6464.990575	0.486313	212.695312	165.527344
6464.992574	0.484704	5.331739	1.627224
6466.024582	0.437506	262.792969	-173.339844
6466.026586	0.485127	262.792969	-173.339844
6466.028584	0.483236	5.315593	1.627309
6467.075030	0.461686	213.867187	166.015625
6467.077033	0.484592	213.867187	166.015625
6467.079032	0.482834	5.311179	1.627270
6468.111056	0.395438	263.085937	-176.953125
6468.117056	0.482731	263.085937	-176.953125
6468.119059	0.481574	5.297310	1.627421
6469.163113	0.485376	200.097656	181.933594
6469.165115	0.483491	5.318402	1.627439
6470.199171	2.648633	257.714844	-179.296875
6470.201173	0.485260	257.714844	-179.296875
6470.203172	0.483489	5.318376	1.627317
6471.247207	0.411586	200.390625	183.496094
6471.249207	0.485847	200.390625	183.496094
6471.251207	0.483790	5.321690	1.627361
6472.285217	0.299678	250.292969	-181.542969
6472.287219	0.481767	250.292969	-181.542969
6472.289218	0.484225	5.326475	1.627625
6473.334112	0.479202	190.429687	194.921875
6473.336110	0.485400	190.429687	194.921875
6473.338113	0.483755	5.321300	1.627642
6474.374072	0.419984	251.855469	-182.910156
6474.376074	0.485181	251.855469	-182.910156
6474.378074	0.483234	5.315575	1.627650
6475.418068	0.363529	197.656250	189.648437
6475.420069	0.486060	197.656250	189.648437
6475.422068	0.484576	5.330339	1.627881
6476.464098	0.484727	249.609375	-183.789062
6476.466101	0.483008	5.313085	1.627547
6477.504123	0.313368	192.382812	195.605469
6477.506124	0.482906	192.382812	195.605469
6477.508126	0.483873	5.322603	1.627381
6478.548145	0.240156	263.867187	-184.179687
6478.550148	0.469942	263.867187	-184.179687
6478.552148	0.484668	263.867187	-184.179687
6478.554147	0.482929	5.312216	1.627875
6479.592219	0.485523	197.656250	191.015625
6479.594221	0.483469	197.656250	191.015625
6479.596220	0.482019	5.302210	1.627256
6480.636258	0.347456	247.949219	-183.984375
6480.638259	0.485117	247.949219	-183.984375
6480.640259	0.484131	5.325438	1.627232
6481.676247	0.363461	189.160156	199.902344
6481.678250	0.485551	189.160156	199.902344
6481.680248	0.484034	5.324375	1.627699
6482.724289	0.421028	256.933594	-183.984375
6482.726291	0.485334	256.933594	-183.984375
6482.728290	0.483369	5.317055	1.627338
6483.762313	0.315679	186.328125	202.832031
6483.764316	0.483757	186.328125	202.832031
6483.766314	0.484732	5.332050	1.627461
6484.810289	0.302472	253.417969	-183.593750
6484.812291	0.482592	253.417969	-183.593750
6484.814291	0.484708	5.331784	1.627227
6485.850363	0.474904	190.917969	199.023437
6485.852365	0.484422	190.917969	199.023437
6485.854363	0.482817	5.310984	1.627757
6486.898380	0.444329	267.089844	-183.300781
6486.900382	0.484978	267.089844	-183.300781
6486.902380	0.483154	5.314698	1.627254
6487.936893	0.415154	190.429687	199.609375
6487.938895	0.485855	190.429687	199.609375
6487.940894	0.483870	5.322567	1.627486
6488.984944	0.456127	267.871094	-182.910156
6488.986944	0.485502	267.871094	-182.910156
6488.988945	0.483740	5.321140	1.627232
6490.023492	0.378511	195.019531	195.214844
6490.025494	0.485764	195.019531	195.214844
6490.027495	0.483900	5.322904	1.627322
6491.071502	0.464840	277.441406	-182.226562
6491.073504	0.484837	277.441406	-182.226562
6491.075504	0.483062	5.313687	1.627098
6492.111476	0.384980	194.335937	195.605469
6492.113479	0.485956	194.335937	195.605469
6492.115480	0.483987	5.323852	1.627939
6493.157485	0.469853	254.101562	-182.519531
6493.159488	0.484974	254.101562	-182.519531
6493.161486	0.483249	5.315734	1.627438
6494.199494	0.444476	189.550781	199.218750
6494.201497	0.485508	189.550781	199.218750
6494.203496	0.483673	5.320405	1.627318
6495.241491	0.258293	238.867187	-181.250000
6495.243494	0.474372	238.867187	-181.250000
6495.245494	0.484735	238.867187	-181.250000
6495.247494	0.482994	5.312934	1.627326
6496.288371	1.003750	199.804687	188.867187
6496.290375	0.484506	5.329568	1.627161
6497.332897	0.482937	270.312500	-179.785156
6497.334898	0.482864	5.311507	1.627733
6498.375409	0.447343	200.585937	186.523437
6498.377413	0.484841	200.585937	186.523437
6498.379414	0.482941	5.312349	1.627393
6499.415945	0.486398	239.453125	-178.222656
6499.417948	0.485030	5.335329	1.627321
6500.463931	0.485417	199.902344	185.546875
6500.465935	0.484336	5.327699	1.627310
6501.500445	0.429113	253.613281	-175.683594
6501.502447	0.485386	253.613281	-175.683594
6501.506446	0.481976	5.301732	1.627455
6502.552402	0.486404	199.218750	184.375000
6502.554404	0.484702	5.331722	1.627610
6503.586931	0.384107	260.644531	-172.851562
6503.588934	0.486853	260.644531	-172.851562
6503.590935	0.486842	5.355260	1.627670
6504.636963	0.429664	202.050781	179.101562
6504.638965	0.485338	202.050781	179.101562
6504.640965	0.483373	5.317108	1.627407
6505.675482	0.484242	292.773437	-168.945312
6505.677485	0.483736	5.321096	1.627203
6506.724398	0.465970	192.578125	186.035156
6506.726401	0.484613	192.578125	186.035156
6506.728402	0.482926	5.312181	1.627678
6507.762406	0.484464	302.343750	-164.746094
6507.764408	0.483970	5.323666	1.627363
6508.810399	0.470974	190.625000	186.132812
6508.812401	0.484355	190.625000	186.132812
6508.814402	0.482602	5.308627	1.627341
6509.848396	0.344208	308.593750	-161.035156
6509.850400	0.484869	308.593750	-161.035156
6509.852400	0.483986	5.323843	1.627262
6510.896385	0.474891	190.917969	184.179687
6510.898385	0.484347	190.917969	184.179687
6510.900383	0.482581	5.308388	1.627355
6511.936392	0.414808	274.707031	-160.351562
6511.938393	0.485356	274.707031	-160.351562
6511.940395	0.483321	5.316532	1.627912
6512.982379	0.478927	201.464844	174.609375
6512.984381	0.484990	201.464844	174.609375
6512.986382	0.483267	5.315938	1.627655
6514.022917	0.288992	289.843750	-158.007812
6514.024921	0.480982	289.843750	-158.007812
6514.026920	0.484410	289.843750	-158.007812
6514.028921	0.482773	5.310506	1.627700
6515.066936	0.376328	191.503906	182.324219
6515.068937	0.485541	191.503906	182.324219
6515.070938	0.483783	5.321610	1.627825
6516.110953	0.309716	287.597656	-156.445312
6516.112955	0.482830	287.597656	-156.445312
6516.114955	0.484274	5.327016	1.627333
6517.152996	0.397016	189.160156	184.570312
6517.154997	0.485985	189.160156	184.570312
6517.156996	0.484017	5.324189	1.627264
6518.199900	0.468955	293.847656	-155.175781
6518.201904	0.485463	293.847656	-155.175781
6518.203903	0.483793	5.321725	1.627363
6519.237910	0.257895	190.136719	183.496094
6519.239912	0.266736	190.136719	183.496094
6519.241911	0.484205	190.136719	183.496094
6519.243912	0.482436	5.306792	1.627275
6520.287974	0.484532	299.414062	-154.394531
6520.289977	0.483965	5.323613	1.627468
6521.326492	0.479683	191.015625	183.105469
6521.328493	0.484550	191.015625	183.105469
6521.332491	0.481665	5.298320	1.627608
6522.374530	0.456679	280.468750	-154.492187
6522.376529	0.485048	280.468750	-154.492187
6522.378529	0.483184	5.315025	1.627607
6523.412549	0.433176	206.835937	170.410156
6523.414552	0.485285	206.835937	170.410156
6523.416553	0.483236	5.315593	1.627429
6524.460553	0.370236	307.226562	-153.125000
6524.462556	0.485704	307.226562	-153.125000
6524.466553	0.482464	5.307103	1.627675
6525.499519	0.470049	194.042969	180.957031
6525.501521	0.485055	194.042969	180.957031
6525.503521	0.483342	5.316762	1.627372
6526.549545	0.499676	300.292969	-154.003906
6526.551547	0.483452	5.317976	1.627752
6527.586053	0.448105	188.964844	184.472656
6527.588054	0.484797	188.964844	184.472656
6527.590054	0.482887	5.311755	1.627603
6528.636089	0.485929	305.468750	-153.613281
6528.638090	0.484024	5.324269	1.627823
6529.672645	0.361005	191.894531	182.324219
6529.674646	0.485684	191.894531	182.324219
6529.676645	0.484268	5.326945	1.627398
6530.724744	0.483469	297.753906	-154.199219
6530.726746	0.482165	5.303814	1.627604
6531.761310	0.471732	194.140625	180.078125
6531.763312	0.485309	194.140625	180.078125
6531.765312	0.483622	5.319847	1.627669
6532.807359	0.484336	293.457031	-155.078125
6532.811358	0.482563	293.457031	-155.078125
6532.813360	0.481338	5.294722	1.627304
6533.851367	0.484609	189.257812	183.691406
6533.853370	0.482864	189.257812	183.691406
6533.855371	0.481560	5.297159	1.627330
6534.891423	0.356515	290.820312	-156.445312
6534.893425	0.486278	290.820312	-156.445312
6534.895426	0.485038	5.335417	1.627537
6535.935438	2.540950	188.476562	184.960937
6535.937439	0.371806	188.476562	184.960937
6535.939440	0.485134	5.336472	1.627189
6536.979470	0.482055	288.671875	-158.203125
6536.981471	0.483896	5.322851	1.627388
6538.025982	0.485630	182.617187	191.601562
6538.027983	0.483731	5.321043	1.627396
6539.065942	0.485536	297.656250	-160.742187
6539.067944	0.483626	297.656250	-160.742187
6539.069945	0.482060	5.302662	1.627815
6540.112868	0.481699	200.683594	176.757812
6540.114869	0.484314	5.327459	1.627652
6541.149410	2.654000	259.765625	-163.574219
6541.151410	0.484495	259.765625	-163.574219
6541.153410	0.484307	5.327380	1.627495
6542.197383	0.234355	191.894531	186.816406
6542.199384	0.468167	191.894531	186.816406
6542.201383	0.484523	191.894531	186.816406
6542.203385	0.482768	5.310452	1.627563
6543.237409	0.476248	251.074219	-165.917969
6543.241408	0.482467	251.074219	-165.917969
6543.243411	0.481221	5.293428	1.627655
6544.287416	0.485474	194.433594	186.914062
6544.291416	0.481947	5.301422	1.627600
6545.321925	0.286010	247.363281	-168.750000
6545.323926	0.480317	247.363281	-168.750000
6545.325926	0.484879	247.363281	-168.750000
6545.327929	0.483299	5.316293	1.627358
6546.371936	0.348314	191.699219	192.089844
6546.373939	0.485293	191.699219	192.089844
6546.375938	0.484186	5.326041	1.627635
6547.409952	0.430484	245.800781	-171.484375
6547.411953	0.485562	245.800781	-171.484375
6547.413954	0.483689	5.320582	1.627262
6548.460000	0.481974	194.042969	192.089844
6548.462000	0.485032	194.042969	192.089844
6548.464001	0.483456	5.318021	1.627326
6549.496525	0.245482	250.000000	-173.632812
6549.498526	0.471007	250.000000	-173.632812
6549.500526	0.484344	250.000000	-173.632812
6549.502525	0.482616	5.308777	1.627330
6550.546514	0.483275	192.675781	194.921875
6550.548516	0.484181	5.325988	1.627385
6551.585030	0.447782	242.480469	-175.195312
6551.587032	0.484620	242.480469	-175.195312
6551.589032	0.482710	5.309814	1.627623
6552.633079	0.485065	191.503906	197.363281
6552.635081	0.484459	5.329045	1.627420
6553.673600	0.479369	255.175781	-177.148437
6553.675602	0.484503	255.175781	-177.148437
6553.677602	0.482776	5.310532	1.627402
6554.717601	0.417377	188.378906	200.195312
6554.719604	0.485085	188.378906	200.195312
6554.721604	0.482974	5.312712	1.627384
6555.759598	0.367985	239.941406	-171.386719
6555.761601	0.486089	239.941406	-171.386719
6555.763601	0.486124	5.347364	1.627595
6556.805623	0.463852	180.664062	208.691406
6556.807626	0.485025	180.664062	208.691406
6556.809624	0.483317	5.316488	1.627418
6557.847613	0.302263	230.566406	-184.082031
6557.849614	0.481977	230.566406	-184.082031
6557.851615	0.482586	5.308450	1.593705
6558.891642	0.437614	180.175781	208.984375
6558.893645	0.485911	180.175781	208.984375
6558.895643	0.485820	5.344023	1.627657
6559.933637	0.393150	240.527344	-178.417969
6559.935639	0.486086	240.527344	-178.417969
6559.937639	0.484146	5.325607	1.627210
6560.977641	2.395670	187.011719	203.613281
6560.979642	0.403557	187.011719	203.613281
6560.981642	0.484088	5.324969	1.627778
6562.019680	0.267633	236.914062	-179.101562
6562.021681	0.476516	236.914062	-179.101562
6562.023682	0.484447	236.914062	-179.101562
6562.025681	0.482748	5.310231	1.627754
6563.063685	0.351979	183.984375	207.031250
6563.065689	0.485268	183.984375	207.031250
6563.067693	0.484040	5.324437	1.627718
6564.107741	0.422341	240.234375	-178.808594
6564.109742	0.485297	240.234375	-178.808594
6564.111741	0.483247	5.315717	1.627418
6565.151723	0.462281	181.347656	209.277344
6565.153723	0.484501	181.347656	209.277344
6565.155721	0.482684	5.309522	1.627261
6566.193695	0.299625	235.351562	-178.320312
6566.195697	0.481622	235.351562	-178.320312
6566.197695	0.484097	5.325067	1.627237
6567.237685	0.302417	185.351562	205.566406
6567.239685	0.481826	185.351562	205.566406
6567.241687	0.483963	5.323595	1.627558
6568.281663	0.482754	240.625000	-178.515625
6568.283666	0.484119	240.625000	-178.515625
6568.285666	0.482397	5.306367	1.627514
6569.325706	0.386587	178.320312	212.402344
6569.327706	0.485677	178.320312	212.402344
6569.329706	0.483821	5.322036	1.627525
6570.369688	0.484587	225.585937	-177.246094
6570.371692	0.482861	5.311472	1.626970
6571.413673	2.477850	186.035156	204.101562
6571.415675	0.484517	186.035156	204.101562
6571.417674	0.482515	5.307661	1.627276
6572.453688	0.451356	225.878906	-176.464844
6572.455690	0.484980	225.878906	-176.464844
6572.457689	0.483188	5.315070	1.627395
6573.499722	0.264624	183.203125	206.054687
6573.501725	0.475412	183.203125	206.054687
6573.503725	0.483987	183.203125	206.054687
6573.505727	0.482169	5.303859	1.627346
6574.539722	0.461273	225.488281	-175.585937
6574.541725	0.484449	225.488281	-175.585937
6574.543725	0.482659	5.309247	1.627527
